frequency	G'	G''	temperature	time	osc_stress	strain	delta
#Hz	Pa	Pa	C	s	Pa		degrees
99.90	70.89	-39.21	24.6	28.48	60.28	3.5846E-3	331.1
79.53	139.9	109.8	24.6	44.34	105.9	0.010027	38.13
62.06	394.0	105.3	24.5	67.45	61.16	9.9866E-3	14.96
50.26	311.9	88.46	24.5	83.31	39.46	9.9563E-3	15.83
39.77	259.5	87.13	24.5	99.34	24.02	9.9334E-3	18.56
31.03	216.4	79.15	24.4	115.3	14.05	9.9267E-3	20.09
25.13	191.8	71.71	24.4	131.4	8.742	9.9387E-3	20.49
19.88	171.7	66.55	24.4	147.8	4.993	9.9512E-3	21.19
15.88	156.7	60.96	24.4	164.2	2.767	0.010007	21.25
12.41	144.2	55.47	24.4	188.2	1.297	0.010050	21.05
9.942	134.9	51.34	24.3	212.3	0.6122	0.010089	20.84
7.938	128.1	47.01	24.3	229.2	0.5222	0.010099	20.15
6.321	122.8	43.08	24.3	254.3	0.6903	9.8520E-3	19.33
5.020	117.5	39.34	24.3	279.7	0.8382	9.9143E-3	18.52
3.984	112.9	36.32	24.3	305.3	0.9303	9.9577E-3	17.83
3.160	109.2	33.59	24.3	332.4	0.9787	9.9666E-3	17.11
2.510	105.7	31.13	24.2	360.8	0.9975	9.9733E-3	16.41
1.992	102.4	28.88	24.2	388.7	0.9979	9.9819E-3	15.75
1.580	99.72	26.56	24.2	421.1	0.9901	9.9874E-3	14.91
1.261	97.18	24.67	24.2	453.9	0.9750	9.9814E-3	14.25
1.000	94.63	22.91	24.2	486.5	0.9561	9.9857E-3	13.61
0.7950	92.41	21.34	24.2	516.0	0.9370	9.9880E-3	13.00
0.6305	90.30	19.94	24.2	549.4	0.9172	9.9870E-3	12.45
0.5010	88.26	18.60	24.1	587.8	0.8967	9.9855E-3	11.90
0.3981	86.52	17.52	24.1	617.3	0.8798	9.9943E-3	11.45
0.3160	84.86	16.40	24.1	650.8	0.8621	9.9922E-3	10.94
0.2512	83.30	15.38	24.1	689.4	0.8452	9.9879E-3	10.46
0.1995	81.85	14.47	24.1	733.8	0.8298	9.9882E-3	10.02
0.1585	80.43	13.58	24.1	786.0	0.8152	9.9966E-3	9.586
0.1259	79.29	12.80	24.1	848.1	0.8023	9.9896E-3	9.168
0.1000	78.13	12.07	24.1	922.7	0.7896	9.9875E-3	8.784
0.07943	77.08	11.45	24.1	1013	0.7781	9.9846E-3	8.447
0.06310	76.09	10.87	24.1	1122	0.7679	9.9887E-3	8.129
0.05012	75.18	10.28	24.1	1257	0.7573	9.9786E-3	7.789
0.03981	74.32	9.840	24.1	1422	0.7488	9.9863E-3	7.542
0.03162	73.48	9.391	24.1	1626	0.7398	9.9842E-3	7.283
0.02512	72.53	9.002	24.1	1880	0.7307	9.9952E-3	7.074
0.01995	71.57	8.630	24.1	2195	0.7213	0.010004	6.876
0.01585	70.69	8.270	24.1	2588	0.7122	0.010005	6.673
0.01259	69.75	8.006	24.1	3079	0.7019	9.9946E-3	6.548
0.01000	68.67	7.679	24.1	3693	0.6921	0.010013	6.380
7.943E-3	67.51	7.570	24.1	4463	0.6804	0.010014	6.398
6.310E-3	66.25	7.424	24.2	5428	0.6688	0.010030	6.394
5.012E-3	64.58	7.380	24.2	6640	0.6536	0.010053	6.519
3.981E-3	62.85	7.301	24.2	8162	0.6359	0.010047	6.626
3.162E-3	60.96	7.561	24.2	10070	0.6175	0.010051	7.070
2.512E-3	58.87	8.078	24.2	12480	0.5996	0.010087	7.813
1.995E-3	56.48	8.563	24.2	15500	0.5759	0.010079	8.622
1.585E-3	53.78	9.283	24.2	19300	0.5496	0.010068	9.793
1.259E-3	50.37	10.43	24.3	24080	0.5198	0.010103	11.70
1.000E-3	47.39	11.02	24.3	28090	0.4895	0.010059	13.10
